* Distortion data saved by REW V5.20.13
* Dated: Oct 16, 2023 7:35:23 AM
* Source: Universal Audio Thunderbolt, Universal Audio Thunderbolt, 1, volume: no control
* Format: 256k Log Swept Sine, 1 sweep at -40.0 dBFS with no timing reference
* Measurement: B1D 10
* Frequency Step: 24 ppo
* Freq (Hz) Fundamental (dB) THD (%) Noise (%) H2 (%) H3 (%) H4 (%) H5 (%) H6 (%) H7 (%) H8 (%) H9 (%)
20.000 106.653 0.276 0.0066 0.106 0.248 0.0096 0.056 0.0048 0.016 0.0015 0.0074
20.586 106.660 0.268 0.0074 0.108 0.239 0.0084 0.053 0.0048 0.015 9.4E-4 0.0067
21.189 106.666 0.263 0.0074 0.112 0.231 0.0071 0.051 0.0043 0.014 4.8E-4 0.0063
21.810 106.673 0.257 0.0074 0.115 0.224 0.0061 0.050 0.0036 0.014 3.0E-4 0.0064
22.449 106.679 0.252 0.0074 0.117 0.217 0.0053 0.049 0.0026 0.014 2.3E-4 0.0071
23.107 106.685 0.248 0.0092 0.121 0.210 0.0053 0.048 0.0019 0.014 2.6E-4 0.0078
23.784 106.690 0.247 0.0092 0.128 0.205 0.0066 0.048 0.0015 0.014 5.1E-4 0.0082
24.481 106.696 0.246 0.0092 0.130 0.202 0.0074 0.048 0.0013 0.014 8.6E-4 0.0081
25.198 106.701 0.240 0.0092 0.126 0.198 0.0070 0.048 0.0012 0.013 0.0010 0.0077
25.937 106.706 0.233 0.0073 0.119 0.193 0.0053 0.048 0.0013 0.013 0.0012 0.0073
26.697 106.710 0.224 0.0073 0.111 0.188 0.0032 0.047 0.0014 0.013 0.0012 0.0073
27.479 106.714 0.218 0.0073 0.108 0.183 0.0027 0.046 9.9E-4 0.013 0.0012 0.0075
28.284 106.719 0.213 0.0075 0.107 0.178 0.0029 0.045 5.5E-4 0.013 0.0014 0.0075
29.113 106.724 0.208 0.0075 0.106 0.173 0.0035 0.044 4.8E-4 0.013 0.0019 0.0071
29.966 106.728 0.203 0.0075 0.105 0.168 0.0037 0.042 7.0E-4 0.013 0.0027 0.0063
30.844 106.731 0.198 0.0075 0.103 0.164 0.0032 0.041 9.4E-4 0.014 0.0033 0.0057
31.748 106.735 0.194 0.011 0.103 0.159 0.0024 0.040 0.0011 0.014 0.0030 0.0052
32.678 106.739 0.190 0.011 0.103 0.153 0.0020 0.039 0.0013 0.014 0.0020 0.0049
33.636 106.743 0.186 0.011 0.102 0.150 0.0021 0.037 0.0018 0.013 0.0010 0.0046
34.621 106.746 0.185 0.013 0.102 0.150 0.0031 0.036 0.0021 0.013 8.8E-4 0.0044
35.636 106.750 0.185 0.013 0.102 0.149 0.0042 0.036 0.0020 0.012 8.5E-4 0.0043
36.680 106.754 0.183 0.013 0.102 0.147 0.0046 0.036 0.0017 0.011 7.4E-4 0.0044
37.755 106.758 0.181 0.013 0.101 0.145 0.0039 0.036 0.0014 0.010 5.5E-4 0.0047
38.861 106.761 0.178 0.013 0.100 0.143 0.0025 0.035 0.0011 0.010 5.5E-4 0.0051
40.000 106.764 0.175 0.011 0.099 0.140 0.0016 0.033 0.0014 0.011 6.3E-4 0.0050
41.172 106.766 0.171 0.011 0.098 0.136 0.0018 0.031 0.0029 0.010 7.3E-4 0.0041
42.379 106.769 0.168 0.014 0.098 0.133 0.0026 0.030 0.0032 0.0095 9.8E-4 0.0034
43.620 106.772 0.166 0.014 0.098 0.130 0.0033 0.028 0.0028 0.0094 0.0013 0.0035
44.898 106.775 0.163 0.014 0.096 0.128 0.0034 0.027 0.0024 0.0095 0.0010 0.0038
46.214 106.778 0.161 0.014 0.094 0.127 0.0028 0.026 0.0028 0.0088 5.4E-4 0.0037
47.568 106.780 0.158 0.032 0.093 0.125 0.0020 0.026 0.0027 0.0084 4.0E-4 0.0037
48.962 106.781 0.153 0.032 0.088 0.122 0.0017 0.024 0.0022 0.0086 5.9E-4 0.0040
50.397 106.783 0.148 0.038 0.087 0.117 0.0019 0.024 0.0022 0.0090 5.3E-4 0.0037
51.874 106.787 0.145 0.038 0.088 0.113 0.0026 0.025 0.0024 0.0088 5.8E-4 0.0034
53.394 106.790 0.142 0.016 0.085 0.111 0.0029 0.025 0.0021 0.0085 7.7E-4 0.0032
54.958 106.793 0.140 0.016 0.084 0.108 0.0028 0.024 0.0017 0.0076 0.0012 0.0027
56.569 106.795 0.137 0.0058 0.085 0.105 0.0023 0.024 0.0016 0.0065 0.0017 0.0020
58.226 106.798 0.133 0.0089 0.082 0.102 0.0018 0.023 0.0015 0.0053 0.0023 0.0014
59.932 106.800 0.131 0.0089 0.082 0.099 0.0030 0.022 0.0012 0.0053 0.0020 0.0012
61.688 106.802 0.129 0.015 0.082 0.097 0.0044 0.021 0.0013 0.0053 0.0016 0.0016
63.496 106.804 0.127 0.013 0.082 0.095 0.0047 0.020 0.0016 0.0048 0.0014 0.0018
65.357 106.806 0.126 0.013 0.081 0.094 0.0033 0.020 0.0016 0.0050 0.0013 0.0015
67.272 106.808 0.124 0.0085 0.080 0.092 0.0030 0.020 0.0015 0.0049 0.0012 9.4E-4
69.243 106.810 0.122 0.012 0.080 0.090 0.0030 0.020 0.0015 0.0040 8.2E-4 5.7E-4
71.272 106.812 0.119 0.012 0.078 0.088 0.0025 0.019 0.0015 0.0037 0.0011 7.1E-4
73.360 106.814 0.120 0.012 0.079 0.088 0.0022 0.018 0.0015 0.0042 8.4E-4 0.0012
75.510 106.815 0.119 0.012 0.079 0.088 0.0015 0.017 0.0020 0.0044 8.1E-4 0.0014
77.723 106.818 0.117 0.0085 0.078 0.086 0.0013 0.015 0.0025 0.0035 8.9E-4 9.3E-4
80.000 106.820 0.115 0.0085 0.077 0.084 0.0010 0.015 0.0025 0.0022 0.0019 4.9E-4
82.344 106.821 0.115 0.0076 0.079 0.083 0.0013 0.014 0.0024 0.0021 0.0027 4.8E-4
84.757 106.823 0.115 0.0076 0.080 0.082 0.0026 0.013 0.0020 0.0027 0.0022 8.2E-4
87.241 106.825 0.112 0.0067 0.080 0.078 0.0041 0.014 0.0023 0.0029 0.0022 0.0017
89.797 106.827 0.110 0.0071 0.079 0.075 0.0035 0.013 0.0023 0.0029 0.0025 0.0019
92.428 106.828 0.108 0.0085 0.079 0.072 0.0026 0.012 0.0024 0.0029 0.0021 0.0012
95.137 106.830 0.105 0.0068 0.078 0.069 0.0024 0.011 0.0019 0.0022 0.0014 8.7E-4
97.924 106.832 0.103 0.014 0.077 0.067 0.0018 0.011 0.0019 0.0021 0.0015 6.0E-4
100.794 106.833 0.102 0.022 0.077 0.066 0.0015 0.012 1.0E-3 0.0022 0.0027 8.3E-4
103.747 106.835 0.101 0.0061 0.076 0.065 0.0016 0.011 0.0013 0.0026 0.0023 9.3E-4
106.787 106.837 0.100 0.0067 0.077 0.063 0.0013 0.011 0.0016 0.0035 0.0022 0.0015
109.916 106.838 0.100 0.0086 0.078 0.061 0.0013 0.0096 0.0016 0.0034 0.0018 0.0017
113.137 106.840 0.099 0.010 0.077 0.060 0.0025 0.0081 0.0016 0.0035 0.0019 0.0015
116.452 106.842 0.098 0.0083 0.077 0.061 0.0023 0.0088 0.0023 0.0034 0.0023 0.0020
119.865 106.844 0.096 0.010 0.074 0.061 0.0021 0.0097 0.0031 0.0027 0.0020 0.0015
123.377 106.845 0.093 0.0071 0.070 0.059 0.0026 0.0097 0.0031 0.0024 0.0013 9.1E-4
126.992 106.847 0.092 0.0079 0.071 0.058 0.0023 0.0090 0.0029 0.0023 8.1E-4 0.0012
130.713 106.849 0.093 0.0079 0.074 0.056 0.0021 0.0095 0.0020 0.0012 7.4E-4 0.0010
134.543 106.850 0.093 0.0065 0.075 0.055 0.0026 0.0081 0.0020 5.9E-4 7.0E-4 0.0012
138.486 106.852 0.092 0.010 0.075 0.053 0.0025 0.0076 0.0015 7.5E-4 0.0012 0.0022
142.544 106.854 0.090 0.011 0.075 0.050 0.0018 0.0069 0.0019 0.0011 0.0015 0.0021
146.721 106.856 0.090 0.0090 0.076 0.048 0.0028 0.0065 0.0017 0.0019 0.0016 0.0024
151.020 106.858 0.090 0.012 0.076 0.047 0.0027 0.0075 0.0016 0.0022 0.0023 0.0018
155.445 106.859 0.088 0.0094 0.075 0.046 0.0031 0.0060 0.0013 0.0026 0.0025 0.0017
160.000 106.860 0.088 0.0077 0.075 0.044 0.0036 0.0059 0.0013 0.0022 0.0019 0.0018
164.688 106.862 0.087 0.0067 0.075 0.044 0.0033 0.0066 0.0014 0.0022 0.0018 1.0E-3
169.514 106.864 0.088 0.0084 0.076 0.043 0.0027 0.0072 0.0013 0.0021 0.0019 0.0019
174.481 106.866 0.090 0.013 0.079 0.042 0.0023 0.0071 0.0013 0.0028 0.0027 0.0027
179.594 106.868 0.088 0.0083 0.078 0.040 0.0013 0.0060 8.0E-4 0.0022 0.0021 0.0027
184.856 106.870 0.085 0.0077 0.077 0.037 0.0017 0.0044 0.0010 0.0017 0.0021 0.0018
190.273 106.871 0.084 0.0060 0.076 0.036 0.0016 0.0048 0.0019 0.0023 0.0018 0.0024
195.849 106.873 0.084 0.0057 0.076 0.036 0.0020 0.0049 0.0017 0.0021 0.0025 0.0021
201.587 106.874 0.084 0.0042 0.076 0.035 0.0016 0.0037 0.0017 0.0013 0.0029 0.0027
207.494 106.876 0.083 0.0065 0.075 0.036 0.0017 0.0041 9.7E-4 0.0016 0.0016 0.0028
213.574 106.877 0.082 0.011 0.075 0.034 0.0027 0.0042 0.0017 0.0023 0.0014 0.0024
219.833 106.878 0.081 0.0065 0.074 0.034 0.0025 0.0016 0.0019 0.0024 0.0014 0.0021
226.274 106.879 0.083 0.0057 0.076 0.034 0.0022 0.0021 0.0022 0.0030 0.0016 0.0016
232.905 106.880 0.083 0.0075 0.077 0.033 0.0017 0.0040 0.0016 0.0036 0.0017 0.0016
239.729 106.881 0.081 0.0060 0.075 0.030 0.0027 0.0050 0.0017 0.0033 0.0019 0.0019
246.754 106.881 0.081 0.0081 0.074 0.030 0.0035 0.0053 0.0017 0.0021 0.0020 0.0018
253.984 106.882 0.081 0.011 0.075 0.030 0.0018 0.0042 0.0021 0.0022 0.0027 0.0021
261.426 106.883 0.081 0.0089 0.075 0.029 0.0016 0.0042 0.0031 0.0025 0.0024 0.0018
269.087 106.883 0.081 0.0051 0.075 0.030 0.0023 0.0033 0.0027 0.0022 0.0025 0.0023
276.972 106.883 0.079 0.0048 0.074 0.028 0.0021 0.0032 0.0021 0.0028 0.0022 0.0019
285.088 106.883 0.078 0.0056 0.073 0.028 0.0027 0.0035 0.0020 0.0028 0.0019 0.0015
293.441 106.883 0.077 0.0068 0.072 0.027 0.0034 0.0037 0.0025 0.0020 0.0018 0.0018
302.040 106.883 0.077 0.0085 0.073 0.025 0.0026 0.0029 0.0020 0.0029 0.0023 0.0019
310.890 106.883 0.078 0.0061 0.074 0.025 0.0026 0.0028 0.0027 0.0033 0.0021 0.0022
320.000 106.884 0.079 0.0062 0.074 0.025 0.0028 0.0044 0.0030 0.0022 0.0031 0.0029
329.377 106.884 0.077 0.0049 0.073 0.026 0.0030 0.0033 0.0023 0.0017 0.0022 0.0023
339.028 106.885 0.076 0.0072 0.071 0.025 0.0028 0.0043 0.0025 0.0018 0.0019 0.0022
348.962 106.887 0.075 0.017 0.071 0.024 0.0023 0.0040 0.0023 0.0018 0.0025 0.0021
359.188 106.888 0.076 0.0049 0.072 0.024 0.0022 0.0032 0.0022 0.0030 0.0025 0.0021
369.713 106.890 0.077 0.0050 0.072 0.024 0.0024 0.0036 0.0021 0.0036 0.0018 0.0017
380.546 106.892 0.074 0.0059 0.070 0.023 0.0025 0.0042 0.0022 0.0033 0.0022 0.0020
391.697 106.895 0.075 0.0086 0.071 0.023 0.0029 0.0025 0.0033 0.0025 0.0036 0.0021
403.175 106.897 0.076 0.0049 0.072 0.023 0.0026 0.0027 0.0026 0.0032 0.0031 0.0020
414.989 106.900 0.076 0.0046 0.073 0.022 0.0021 0.0035 0.0029 0.0029 0.0019 0.0023
427.149 106.902 0.078 0.0060 0.075 0.021 0.0029 0.0044 0.0027 0.0032 0.0020 0.0024
439.665 106.905 0.078 0.0034 0.075 0.022 0.0028 0.0039 0.0033 0.0028 0.0025 0.0020
452.548 106.907 0.078 0.0053 0.075 0.022 0.0027 0.0023 0.0027 0.0042 0.0020 0.0023
465.809 106.908 0.079 0.0038 0.075 0.023 0.0028 0.0035 0.0026 0.0038 0.0030 0.0029
479.458 106.908 0.077 0.0068 0.074 0.021 0.0022 0.0036 0.0020 0.0021 0.0036 0.0034
493.507 106.909 0.077 0.0076 0.073 0.022 0.0033 0.0035 0.0024 0.0025 0.0036 0.0032
507.968 106.909 0.075 0.0051 0.072 0.019 0.0043 0.0035 0.0034 0.0027 0.0017 0.0036
522.853 106.908 0.074 0.0067 0.070 0.020 0.0033 0.0038 0.0032 0.0041 0.0032 0.0036
538.174 106.908 0.072 0.0088 0.069 0.019 0.0034 0.0025 0.0020 0.0042 0.0033 0.0041
553.943 106.907 0.071 0.0067 0.068 0.020 0.0039 0.0036 0.0020 0.0038 0.0026 0.0033
570.175 106.907 0.071 0.0083 0.067 0.020 0.0033 0.0043 0.0034 0.0034 0.0021 0.0019
586.883 106.908 0.071 0.0069 0.067 0.021 0.0035 0.0040 0.0029 0.0038 0.0021 0.0027
604.080 106.909 0.072 0.0072 0.067 0.024 0.0036 0.0042 0.0025 0.0030 0.0033 0.0030
621.780 106.910 0.071 0.013 0.067 0.022 0.0040 0.0035 0.0026 0.0032 0.0038 0.0029
640.000 106.911 0.069 0.0063 0.065 0.020 0.0041 0.0031 0.0030 0.0029 0.0032 0.0029
658.753 106.911 0.070 0.0093 0.067 0.020 0.0034 0.0031 0.0031 0.0027 0.0034 0.0034
678.056 106.911 0.071 0.0052 0.067 0.020 0.0033 0.0033 0.0032 0.0030 0.0032 0.0034
697.925 106.909 0.070 0.0072 0.067 0.019 0.0041 0.0041 0.0039 0.0030 0.0030 0.0037
718.376 106.907 0.071 0.0096 0.067 0.020 0.0042 0.0040 0.0039 0.0028 0.0027 0.0039
739.426 106.904 0.068 0.0061 0.065 0.020 0.0052 0.0032 0.0038 0.0032 0.0033 0.0034
761.093 106.902 0.069 0.0090 0.065 0.020 0.0051 0.0018 0.0035 0.0045 0.0039 0.0034
783.394 106.901 0.070 0.010 0.066 0.018 0.0041 0.0031 0.0042 0.0041 0.0040 0.0032
806.349 106.902 0.071 0.0077 0.068 0.019 0.0041 0.0045 0.0038 0.0032 0.0037 0.0032
829.977 106.905 0.070 0.0067 0.067 0.018 0.0048 0.0056 0.0034 0.0035 0.0035 0.0032
854.297 106.910 0.072 0.0065 0.069 0.019 0.0033 0.0042 0.0041 0.0037 0.0032 0.0043
879.330 106.915 0.074 0.0057 0.070 0.021 0.0035 0.0036 0.0048 0.0037 0.0035 0.0036
905.097 106.919 0.075 0.0079 0.072 0.019 0.0042 0.0042 0.0055 0.0034 0.0037 0.0042
931.618 106.921 0.075 0.0055 0.072 0.018 0.0041 0.0046 0.0043 0.0039 0.0041 0.0045
958.917 106.922 0.075 0.0086 0.073 0.018 0.0037 0.0046 0.0028 0.0042 0.0038 0.0045
987.015 106.921 0.076 0.0094 0.073 0.017 0.0043 0.0039 0.0027 0.0042 0.0041 0.0044
1015.937 106.921 0.077 0.0094 0.074 0.018 0.0045 0.0036 0.0039 0.0040 0.0045 0.0043
1045.706 106.920 0.077 0.011 0.074 0.017 0.0041 0.0036 0.0042 0.0042 0.0052 0.0040
1076.347 106.920 0.078 0.0075 0.076 0.015 0.0036 0.0037 0.0037 0.0045 0.0050 0.0045
1107.887 106.920 0.079 0.0091 0.077 0.015 0.0043 0.0042 0.0045 0.0035 0.0048 0.0051
1140.350 106.917 0.077 0.011 0.075 0.015 0.0036 0.0044 0.0043 0.0041 0.0043 0.0051
1173.765 106.912 0.074 0.0076 0.072 0.016 0.0037 0.0042 0.0038 0.0043 0.0044 0.0034
1208.159 106.907 0.075 0.0067 0.072 0.017 0.0042 0.0047 0.0040 0.0057 0.0052 0.0042
1243.561 106.906 0.074 0.010 0.071 0.016 0.0038 0.0039 0.0042 0.0048 0.0059 0.0049
1280.000 106.909 0.076 0.012 0.074 0.012 0.0042 0.0045 0.0050 0.0044 0.0047 0.0058
1317.507 106.917 0.077 0.0086 0.075 0.013 0.0050 0.0037 0.0056 0.0050 0.0044 0.0055
1356.113 106.925 0.078 0.012 0.076 0.013 0.0053 0.0046 0.0054 0.0050 0.0053 0.0049
1395.850 106.930 0.075 0.0086 0.072 0.014 0.0054 0.0056 0.0058 0.0061 0.0056 0.0055
1436.751 106.931 0.073 0.0095 0.071 0.014 0.0054 0.0053 0.0047 0.0062 0.0057 0.0066
1478.851 106.931 0.074 0.0094 0.072 0.013 0.0050 0.0055 0.0047 0.0048 0.0048 0.0054
1522.185 106.930 0.076 0.011 0.074 0.014 0.0048 0.0050 0.0055 0.0051 0.0062 0.0043
1566.789 106.927 0.076 0.013 0.073 0.014 0.0046 0.0058 0.0065 0.0050 0.0065 0.0050
1612.699 106.920 0.071 0.012 0.068 0.014 0.0051 0.0057 0.0063 0.0060 0.0066 0.0062
1659.955 106.912 0.068 0.0092 0.065 0.012 0.0045 0.0056 0.0064 0.0064 0.0066 0.0070
1708.595 106.911 0.071 0.0079 0.068 0.012 0.0055 0.0050 0.0051 0.0077 0.0059 0.0064
1758.661 106.919 0.074 0.011 0.071 0.013 0.0070 0.0052 0.0057 0.0065 0.0059 0.0071
1810.193 106.930 0.076 0.011 0.073 0.014 0.0059 0.0054 0.0060 0.0059 0.0057 0.0066
1863.236 106.937 0.073 0.012 0.071 0.012 0.0063 0.0054 0.0053 0.0054 0.0056 0.0077
1917.833 106.937 0.073 0.011 0.070 0.012 0.0062 0.0057 0.0063 0.0058 0.0065 0.0078
1974.030 106.934 0.075 0.0096 0.072 0.012 0.0064 0.0063 0.0061 0.0079 0.0067 0.0060
2031.873 106.926 0.075 0.011 0.072 0.014 0.0073 0.0072 0.0058 0.0080 0.0063 0.0063
2091.412 106.913 0.073 0.013 0.070 0.014 0.0059 0.0060 0.0064 0.0067 0.0073 0.0053
2152.695 106.906 0.074 0.013 0.071 0.012 0.0052 0.0068 0.0055 0.0070 0.0077 0.0049
2215.774 106.915 0.076 0.015 0.074 0.011 0.0066 0.0066 0.0056 0.0078 0.0075 0.0045
2280.701 106.928 0.075 0.012 0.073 0.010 0.0063 0.0069 0.0070 0.0083 0.0065 0.0035
