* Distortion data saved by REW V5.20.13
* Dated: Sep 29, 2023 7:40:29 PM
* Source: ASIO ASIO Lynx, Aurora(n) Record 26
* Format: 512k Log Swept Sine, 1 sweep at -18.0 dBFS with no timing reference
* Measurement: tegeler -18dbfs 九月 30
* Frequency Step: 24 ppo
* Freq (Hz) Fundamental (dB) THD (%) Noise (%) H2 (%) H3 (%) H4 (%) H5 (%) H6 (%) H7 (%) H8 (%) H9 (%)
20.000 96.108 4.31 1.1E-4 0.338 4.26 0.048 0.537 0.019 0.142 0.0016 0.051
20.586 96.142 4.10 1.1E-4 0.352 4.05 0.045 0.505 0.019 0.132 0.0024 0.047
21.189 96.174 3.90 1.1E-4 0.363 3.85 0.043 0.475 0.019 0.123 0.0024 0.044
21.810 96.203 3.71 1.1E-4 0.372 3.66 0.042 0.448 0.018 0.115 0.0019 0.041
22.449 96.231 3.53 1.2E-4 0.381 3.48 0.041 0.424 0.017 0.107 0.0016 0.039
23.107 96.256 3.36 1.2E-4 0.391 3.31 0.040 0.400 0.016 0.101 0.0013 0.037
23.784 96.279 3.21 1.2E-4 0.401 3.16 0.038 0.379 0.015 0.095 0.0011 0.035
24.481 96.302 3.06 1.2E-4 0.408 3.01 0.037 0.359 0.014 0.090 0.0013 0.033
25.198 96.322 2.92 8.2E-5 0.414 2.86 0.036 0.341 0.013 0.085 0.0019 0.030
25.937 96.342 2.78 8.2E-5 0.420 2.73 0.034 0.324 0.013 0.081 0.0020 0.028
26.697 96.361 2.66 8.2E-5 0.425 2.61 0.032 0.309 0.013 0.077 0.0015 0.026
27.479 96.380 2.54 8.1E-5 0.429 2.49 0.030 0.294 0.013 0.073 0.0010 0.024
28.284 96.398 2.43 1.4E-4 0.434 2.38 0.027 0.279 0.012 0.070 9.6E-4 0.022
29.113 96.415 2.33 1.4E-4 0.439 2.27 0.025 0.267 0.011 0.068 0.0012 0.021
29.966 96.432 2.24 1.4E-4 0.441 2.18 0.023 0.256 0.0095 0.065 0.0013 0.019
30.844 96.449 2.15 1.5E-4 0.443 2.09 0.022 0.246 0.0090 0.062 0.0010 0.017
31.748 96.465 2.06 1.5E-4 0.446 2.00 0.021 0.236 0.0093 0.059 7.9E-4 0.016
32.678 96.480 1.98 1.4E-4 0.448 1.92 0.020 0.227 0.0097 0.056 0.0011 0.015
33.636 96.495 1.91 1.4E-4 0.450 1.84 0.019 0.217 0.0095 0.053 0.0012 0.014
34.621 96.511 1.84 1.4E-4 0.452 1.77 0.018 0.208 0.0088 0.051 0.0011 0.013
35.636 96.526 1.78 1.4E-4 0.452 1.71 0.019 0.199 0.0078 0.049 9.0E-4 0.012
36.680 96.541 1.71 1.3E-4 0.452 1.64 0.019 0.192 0.0071 0.047 8.7E-4 0.011
37.755 96.556 1.65 1.3E-4 0.451 1.58 0.018 0.185 0.0064 0.045 8.4E-4 0.0098
38.861 96.571 1.60 1.3E-4 0.453 1.52 0.016 0.177 0.0055 0.044 0.0012 0.0091
40.000 96.585 1.55 1.5E-4 0.454 1.47 0.015 0.170 0.0047 0.042 0.0014 0.0085
41.172 96.600 1.50 1.5E-4 0.456 1.42 0.014 0.163 0.0040 0.041 0.0017 0.0080
42.379 96.615 1.45 1.5E-4 0.457 1.37 0.013 0.156 0.0041 0.039 0.0020 0.0073
43.620 96.629 1.41 2.1E-4 0.459 1.32 0.012 0.150 0.0044 0.037 0.0019 0.0072
44.898 96.643 1.36 2.1E-4 0.460 1.28 0.011 0.145 0.0046 0.034 0.0016 0.0073
46.214 96.658 1.32 5.1E-4 0.460 1.23 0.010 0.139 0.0048 0.032 0.0013 0.0073
47.568 96.672 1.29 5.1E-4 0.460 1.19 0.0092 0.133 0.0044 0.031 0.0012 0.0071
48.962 96.687 1.25 0.0010 0.460 1.15 0.0081 0.128 0.0042 0.029 9.6E-4 0.0069
50.397 96.701 1.21 0.0010 0.461 1.12 0.0076 0.123 0.0035 0.027 0.0011 0.0064
51.874 96.715 1.18 6.1E-4 0.462 1.08 0.0080 0.118 0.0029 0.026 0.0010 0.0057
53.394 96.730 1.15 6.1E-4 0.462 1.05 0.0081 0.114 0.0026 0.024 0.0010 0.0053
54.958 96.744 1.12 1.7E-4 0.463 1.02 0.0077 0.110 0.0032 0.023 8.3E-4 0.0051
56.569 96.759 1.10 1.7E-4 0.464 0.987 0.0082 0.105 0.0034 0.021 8.8E-4 0.0045
58.226 96.773 1.07 1.9E-4 0.466 0.957 0.0083 0.102 0.0034 0.020 5.8E-4 0.0038
59.932 96.788 1.05 1.9E-4 0.469 0.929 0.0091 0.098 0.0031 0.019 6.1E-4 0.0033
61.688 96.802 1.02 2.5E-4 0.470 0.902 0.0089 0.093 0.0026 0.018 7.7E-4 0.0031
63.496 96.816 0.998 2.3E-4 0.470 0.876 0.0079 0.089 0.0025 0.017 9.5E-4 0.0033
65.357 96.831 0.975 2.3E-4 0.471 0.850 0.0073 0.086 0.0024 0.016 8.6E-4 0.0037
67.272 96.845 0.954 3.7E-4 0.472 0.825 0.0071 0.082 0.0020 0.016 4.9E-4 0.0038
69.243 96.859 0.933 2.6E-4 0.472 0.800 0.0071 0.079 0.0019 0.014 5.6E-4 0.0036
71.272 96.873 0.912 2.6E-4 0.472 0.777 0.0070 0.076 0.0015 0.013 5.7E-4 0.0032
73.360 96.887 0.893 2.5E-4 0.473 0.754 0.0070 0.073 0.0014 0.012 6.8E-4 0.0032
75.510 96.902 0.874 1.9E-4 0.473 0.731 0.0067 0.070 0.0014 0.012 5.4E-4 0.0028
77.723 96.916 0.855 2.4E-4 0.473 0.709 0.0066 0.067 0.0015 0.011 5.2E-4 0.0023
80.000 96.929 0.837 2.4E-4 0.473 0.687 0.0067 0.064 0.0016 0.011 5.0E-4 0.0019
82.344 96.943 0.820 2.2E-4 0.473 0.666 0.0064 0.062 0.0016 0.010 4.1E-4 0.0020
84.757 96.957 0.803 2.3E-4 0.474 0.645 0.0062 0.059 0.0015 0.0096 2.6E-4 0.0017
87.241 96.971 0.787 3.3E-4 0.474 0.625 0.0059 0.057 0.0016 0.0091 3.8E-4 0.0015
89.797 96.984 0.772 3.2E-4 0.475 0.606 0.0055 0.054 0.0015 0.0081 6.5E-4 0.0014
92.428 96.998 0.757 2.7E-4 0.474 0.588 0.0055 0.052 0.0014 0.0075 7.7E-4 0.0013
95.137 97.011 0.742 2.7E-4 0.473 0.569 0.0053 0.050 0.0016 0.0069 8.6E-4 0.0012
97.924 97.025 0.727 3.6E-4 0.472 0.551 0.0048 0.048 0.0015 0.0067 8.5E-4 0.0012
100.794 97.038 0.713 5.7E-4 0.471 0.534 0.0045 0.046 0.0013 0.0063 7.6E-4 0.0012
103.747 97.051 0.700 4.8E-4 0.470 0.517 0.0043 0.044 0.0011 0.0060 7.3E-4 9.1E-4
106.787 97.064 0.687 2.6E-4 0.469 0.500 0.0038 0.042 7.4E-4 0.0057 6.4E-4 5.5E-4
109.916 97.077 0.675 1.8E-4 0.468 0.484 0.0034 0.040 5.4E-4 0.0052 4.7E-4 8.1E-4
113.137 97.090 0.663 2.7E-4 0.467 0.469 0.0032 0.038 4.0E-4 0.0048 4.3E-4 1.0E-3
116.452 97.102 0.652 3.0E-4 0.467 0.454 0.0029 0.035 5.6E-4 0.0044 3.4E-4 9.5E-4
119.865 97.115 0.642 3.7E-4 0.466 0.439 0.0027 0.034 8.3E-4 0.0041 4.1E-4 0.0010
123.377 97.127 0.632 3.5E-4 0.466 0.425 0.0031 0.032 6.5E-4 0.0041 3.9E-4 9.2E-4
126.992 97.140 0.623 3.6E-4 0.466 0.412 0.0031 0.030 4.1E-4 0.0038 2.7E-4 0.0010
130.713 97.152 0.613 2.9E-4 0.465 0.399 0.0028 0.028 4.6E-4 0.0034 3.5E-4 8.3E-4
134.543 97.164 0.604 2.3E-4 0.464 0.385 0.0024 0.027 5.5E-4 0.0032 3.6E-4 7.7E-4
138.486 97.176 0.595 3.0E-4 0.464 0.372 0.0024 0.026 5.7E-4 0.0029 2.9E-4 7.7E-4
142.544 97.188 0.587 3.8E-4 0.463 0.360 0.0024 0.025 5.1E-4 0.0026 2.4E-4 7.0E-4
146.721 97.199 0.580 8.5E-4 0.463 0.348 0.0022 0.023 6.6E-4 0.0023 2.6E-4 6.2E-4
151.020 97.211 0.572 0.0016 0.462 0.336 0.0019 0.022 7.7E-4 0.0020 3.7E-4 8.2E-4
155.445 97.222 0.564 4.6E-4 0.461 0.324 0.0019 0.021 6.6E-4 0.0020 4.2E-4 7.9E-4
160.000 97.234 0.558 3.9E-4 0.461 0.313 0.0021 0.020 3.5E-4 0.0017 4.5E-4 7.6E-4
164.688 97.245 0.551 4.5E-4 0.460 0.302 0.0022 0.019 3.8E-4 0.0016 3.3E-4 6.3E-4
169.514 97.256 0.545 4.4E-4 0.460 0.291 0.0024 0.018 5.4E-4 0.0011 2.2E-4 6.8E-4
174.481 97.266 0.539 3.4E-4 0.459 0.281 0.0022 0.018 5.6E-4 9.3E-4 1.7E-4 6.4E-4
179.594 97.277 0.533 4.0E-4 0.459 0.270 0.0020 0.017 4.5E-4 8.3E-4 3.5E-4 5.9E-4
184.856 97.288 0.528 4.1E-4 0.459 0.261 0.0021 0.016 4.0E-4 6.4E-4 4.9E-4 6.2E-4
190.273 97.298 0.523 3.5E-4 0.458 0.251 0.0017 0.015 4.2E-4 5.5E-4 5.4E-4 4.9E-4
195.849 97.308 0.518 3.8E-4 0.457 0.242 0.0014 0.015 4.5E-4 6.6E-4 4.0E-4 4.3E-4
201.587 97.319 0.513 3.6E-4 0.457 0.233 0.0012 0.014 5.1E-4 9.0E-4 4.2E-4 3.4E-4
207.494 97.329 0.509 5.3E-4 0.456 0.224 0.0012 0.013 4.3E-4 0.0010 2.7E-4 2.8E-4
213.574 97.339 0.504 5.6E-4 0.456 0.215 0.0012 0.013 4.6E-4 9.9E-4 2.5E-4 3.1E-4
219.833 97.348 0.501 4.9E-4 0.455 0.207 0.0012 0.012 6.6E-4 9.5E-4 4.4E-4 3.5E-4
226.274 97.358 0.497 2.4E-4 0.455 0.200 9.9E-4 0.011 6.0E-4 8.5E-4 4.3E-4 3.2E-4
232.905 97.368 0.493 2.7E-4 0.454 0.192 8.5E-4 0.011 3.4E-4 8.7E-4 3.4E-4 3.2E-4
239.729 97.377 0.490 3.6E-4 0.453 0.185 8.0E-4 0.010 4.7E-4 6.6E-4 5.0E-4 3.3E-4
246.754 97.386 0.487 6.9E-4 0.453 0.178 7.6E-4 0.0094 5.7E-4 7.4E-4 3.4E-4 3.6E-4
253.984 97.395 0.484 5.1E-4 0.453 0.171 6.4E-4 0.0089 5.7E-4 5.5E-4 2.8E-4 4.0E-4
261.426 97.404 0.481 3.1E-4 0.452 0.164 5.3E-4 0.0085 4.8E-4 6.8E-4 3.6E-4 3.4E-4
269.087 97.413 0.478 4.1E-4 0.452 0.158 5.2E-4 0.0080 4.9E-4 5.0E-4 3.7E-4 1.8E-4
276.972 97.422 0.476 3.3E-4 0.451 0.152 5.3E-4 0.0075 4.7E-4 3.1E-4 3.1E-4 3.1E-4
285.088 97.430 0.474 3.7E-4 0.451 0.146 4.7E-4 0.0071 5.5E-4 3.7E-4 2.7E-4 3.4E-4
293.441 97.439 0.472 3.9E-4 0.450 0.140 5.1E-4 0.0067 5.3E-4 4.2E-4 2.8E-4 2.7E-4
302.040 97.447 0.470 3.8E-4 0.450 0.135 3.9E-4 0.0065 4.9E-4 4.7E-4 3.1E-4 2.6E-4
310.890 97.456 0.468 7.0E-4 0.449 0.130 4.7E-4 0.0062 3.7E-4 3.8E-4 2.5E-4 1.8E-4
320.000 97.464 0.466 3.6E-4 0.449 0.125 4.4E-4 0.0061 3.6E-4 5.8E-4 2.5E-4 2.9E-4
329.377 97.472 0.464 3.5E-4 0.448 0.120 4.8E-4 0.0060 4.0E-4 5.9E-4 2.3E-4 3.1E-4
339.028 97.480 0.463 4.9E-4 0.448 0.115 6.2E-4 0.0057 3.1E-4 5.3E-4 2.6E-4 2.6E-4
348.962 97.487 0.461 4.6E-4 0.447 0.111 4.5E-4 0.0055 2.9E-4 6.8E-4 2.4E-4 1.8E-4
359.188 97.495 0.459 5.6E-4 0.447 0.106 2.9E-4 0.0053 2.9E-4 8.2E-4 2.3E-4 1.6E-4
369.713 97.502 0.458 4.0E-4 0.446 0.102 4.1E-4 0.0050 3.7E-4 9.4E-4 2.5E-4 2.4E-4
380.546 97.510 0.457 5.6E-4 0.446 0.098 5.2E-4 0.0049 3.9E-4 8.7E-4 1.7E-4 3.5E-4
391.697 97.517 0.455 5.6E-4 0.446 0.094 5.2E-4 0.0044 3.7E-4 8.8E-4 1.6E-4 3.9E-4
403.175 97.524 0.454 5.6E-4 0.445 0.091 3.0E-4 0.0042 3.3E-4 9.8E-4 2.3E-4 2.6E-4
414.989 97.532 0.453 4.8E-4 0.445 0.087 4.4E-4 0.0042 3.1E-4 0.0011 2.2E-4 3.1E-4
427.149 97.539 0.452 5.0E-4 0.444 0.084 4.8E-4 0.0041 2.6E-4 0.0011 2.0E-4 4.1E-4
439.665 97.545 0.451 3.9E-4 0.444 0.081 5.1E-4 0.0039 3.8E-4 0.0010 2.4E-4 4.4E-4
452.548 97.552 0.450 0.0023 0.444 0.078 5.7E-4 0.0037 3.6E-4 9.5E-4 2.9E-4 5.0E-4
465.809 97.559 0.449 4.2E-4 0.443 0.075 4.0E-4 0.0035 3.1E-4 8.2E-4 3.7E-4 4.4E-4
479.458 97.566 0.448 5.6E-4 0.443 0.072 3.7E-4 0.0032 3.2E-4 8.4E-4 3.7E-4 4.3E-4
493.507 97.572 0.448 6.9E-4 0.442 0.069 4.1E-4 0.0030 3.7E-4 0.0010 3.0E-4 3.8E-4
507.968 97.578 0.447 5.9E-4 0.442 0.067 4.6E-4 0.0029 3.6E-4 0.0011 3.0E-4 3.8E-4
522.853 97.585 0.447 4.5E-4 0.442 0.064 4.9E-4 0.0028 2.9E-4 0.0010 2.2E-4 4.6E-4
538.174 97.591 0.446 6.3E-4 0.442 0.062 5.9E-4 0.0027 3.4E-4 0.0010 2.2E-4 3.9E-4
553.943 97.597 0.445 0.0015 0.441 0.060 5.9E-4 0.0026 3.1E-4 0.0010 2.7E-4 5.0E-4
570.175 97.603 0.445 5.9E-4 0.441 0.058 5.6E-4 0.0027 2.8E-4 0.0012 2.7E-4 4.2E-4
586.883 97.609 0.444 4.8E-4 0.441 0.055 5.4E-4 0.0027 3.4E-4 0.0012 3.6E-4 3.2E-4
604.080 97.615 0.443 9.0E-4 0.440 0.053 5.1E-4 0.0027 3.5E-4 0.0011 3.5E-4 4.1E-4
621.780 97.621 0.443 4.9E-4 0.440 0.052 5.5E-4 0.0028 3.2E-4 9.7E-4 3.7E-4 4.1E-4
640.000 97.626 0.443 5.1E-4 0.440 0.050 6.0E-4 0.0028 2.8E-4 9.3E-4 3.0E-4 3.3E-4
658.753 97.632 0.442 9.0E-4 0.440 0.048 6.0E-4 0.0030 2.5E-4 0.0010 3.2E-4 3.1E-4
678.056 97.638 0.442 4.8E-4 0.439 0.046 4.5E-4 0.0029 3.1E-4 9.7E-4 3.1E-4 2.9E-4
697.925 97.643 0.441 5.1E-4 0.439 0.045 4.4E-4 0.0032 3.0E-4 9.5E-4 2.7E-4 3.3E-4
718.376 97.648 0.440 7.8E-4 0.438 0.043 4.9E-4 0.0032 3.1E-4 9.6E-4 3.3E-4 3.6E-4
739.426 97.654 0.440 5.0E-4 0.438 0.042 4.8E-4 0.0033 3.3E-4 0.0011 3.3E-4 3.1E-4
761.093 97.659 0.440 6.5E-4 0.438 0.040 4.5E-4 0.0034 3.6E-4 0.0011 3.2E-4 2.8E-4
783.394 97.664 0.439 7.1E-4 0.438 0.039 5.6E-4 0.0035 3.2E-4 0.0011 3.8E-4 3.4E-4
806.349 97.669 0.439 8.2E-4 0.438 0.038 5.6E-4 0.0034 3.3E-4 9.5E-4 3.5E-4 3.5E-4
829.977 97.674 0.439 4.9E-4 0.437 0.037 6.1E-4 0.0034 3.9E-4 9.9E-4 3.5E-4 3.6E-4
854.297 97.679 0.439 0.0011 0.437 0.036 7.2E-4 0.0036 4.0E-4 9.0E-4 3.5E-4 3.5E-4
879.330 97.684 0.438 6.5E-4 0.437 0.035 7.8E-4 0.0036 4.0E-4 9.1E-4 4.0E-4 3.6E-4
905.097 97.688 0.438 8.8E-4 0.437 0.034 8.0E-4 0.0035 4.2E-4 8.4E-4 4.0E-4 3.1E-4
931.618 97.693 0.438 6.6E-4 0.436 0.033 8.1E-4 0.0035 4.1E-4 7.3E-4 3.8E-4 4.1E-4
958.917 97.698 0.437 6.3E-4 0.436 0.032 7.9E-4 0.0038 4.2E-4 7.4E-4 3.7E-4 5.0E-4
987.015 97.702 0.437 7.9E-4 0.436 0.031 7.6E-4 0.0039 3.9E-4 7.5E-4 3.3E-4 4.1E-4
1015.937 97.707 0.437 6.8E-4 0.436 0.031 7.1E-4 0.0038 3.7E-4 8.0E-4 3.2E-4 3.8E-4
1045.706 97.711 0.436 0.0011 0.435 0.030 6.9E-4 0.0038 4.4E-4 8.9E-4 3.9E-4 3.9E-4
1076.347 97.715 0.436 6.5E-4 0.435 0.029 6.8E-4 0.0038 4.3E-4 7.8E-4 3.4E-4 4.3E-4
1107.887 97.720 0.436 8.0E-4 0.435 0.029 7.4E-4 0.0037 4.0E-4 6.1E-4 4.3E-4 4.1E-4
1140.350 97.724 0.435 7.6E-4 0.435 0.028 7.8E-4 0.0038 4.2E-4 6.5E-4 4.3E-4 4.2E-4
1173.765 97.728 0.435 0.0011 0.434 0.028 8.0E-4 0.0037 4.2E-4 6.2E-4 4.2E-4 4.4E-4
1208.159 97.732 0.435 0.0010 0.434 0.027 6.8E-4 0.0035 4.2E-4 6.0E-4 3.6E-4 4.2E-4
1243.561 97.736 0.435 9.9E-4 0.434 0.027 7.7E-4 0.0033 3.7E-4 5.8E-4 3.4E-4 5.1E-4
1280.000 97.740 0.434 9.1E-4 0.433 0.027 7.6E-4 0.0035 3.9E-4 6.5E-4 4.2E-4 4.5E-4
1317.507 97.744 0.434 7.1E-4 0.433 0.027 7.7E-4 0.0036 3.8E-4 6.3E-4 3.9E-4 5.3E-4
1356.113 97.747 0.434 0.0012 0.433 0.026 7.7E-4 0.0036 4.0E-4 6.6E-4 4.7E-4 6.1E-4
1395.850 97.751 0.434 0.0011 0.433 0.026 7.7E-4 0.0035 4.8E-4 5.7E-4 4.5E-4 5.2E-4
1436.751 97.754 0.433 0.0011 0.432 0.026 7.7E-4 0.0034 5.0E-4 6.3E-4 4.8E-4 4.3E-4
1478.851 97.758 0.433 0.0010 0.432 0.026 7.6E-4 0.0033 4.6E-4 6.1E-4 4.9E-4 4.8E-4
1522.185 97.761 0.433 9.1E-4 0.432 0.025 7.2E-4 0.0032 4.3E-4 6.0E-4 5.1E-4 5.0E-4
1566.789 97.765 0.432 0.0011 0.432 0.025 5.9E-4 0.0032 5.3E-4 5.1E-4 4.8E-4 5.1E-4
1612.699 97.768 0.432 9.2E-4 0.432 0.025 6.6E-4 0.0031 4.9E-4 4.5E-4 4.5E-4 4.7E-4
1659.955 97.771 0.432 0.0012 0.431 0.025 6.7E-4 0.0032 5.6E-4 5.3E-4 5.1E-4 4.9E-4
1708.595 97.774 0.432 9.6E-4 0.431 0.025 7.6E-4 0.0031 4.9E-4 5.9E-4 5.0E-4 5.2E-4
1758.661 97.777 0.432 1.0E-3 0.431 0.024 8.0E-4 0.0029 5.2E-4 6.0E-4 4.6E-4 5.0E-4
1810.193 97.780 0.431 0.0014 0.431 0.024 8.8E-4 0.0029 5.3E-4 5.5E-4 4.7E-4 5.0E-4
1863.236 97.783 0.431 0.0011 0.430 0.024 8.4E-4 0.0028 6.0E-4 6.2E-4 4.4E-4 4.3E-4
1917.833 97.785 0.431 0.0011 0.430 0.024 7.6E-4 0.0027 6.0E-4 5.5E-4 4.6E-4 4.3E-4
1974.030 97.788 0.430 0.0010 0.430 0.024 8.3E-4 0.0026 6.8E-4 5.6E-4 4.8E-4 4.3E-4
2031.873 97.791 0.430 0.0012 0.430 0.024 8.7E-4 0.0026 5.2E-4 5.3E-4 4.7E-4 4.3E-4
2091.412 97.793 0.430 0.0011 0.429 0.024 8.4E-4 0.0025 5.2E-4 5.4E-4 5.4E-4 4.4E-4
2152.695 97.795 0.430 0.0012 0.429 0.023 7.8E-4 0.0024 6.1E-4 4.9E-4 5.0E-4 4.3E-4
2215.774 97.797 0.430 0.0010 0.429 0.023 7.6E-4 0.0023 6.0E-4 5.2E-4 4.6E-4 4.0E-4
2280.701 97.800 0.429 0.0011 0.429 0.023 8.3E-4 0.0022 5.9E-4 5.9E-4 4.4E-4 3.8E-4
2347.530 97.802 0.429 0.0012 0.429 0.023 8.4E-4 0.0022 5.9E-4 6.1E-4 4.1E-4 3.4E-4
2416.318 97.803 0.429 0.0016 0.429 0.023 7.6E-4 0.0021 5.2E-4 5.6E-4 4.2E-4 3.5E-4
